# Xenon10 and Xenon100 limits on absorption of dark photon
# From Bloch et al. 1608.02123, digitized up to ~100 eV
# Mass [eV] and kappa/epsilon
7.46860406386791 5.372566727864858e-13
7.631837383153534 4.636409832593958e-13
7.91185938814343 4.0011222241844355e-13
8.381421540417646 3.3168610064564425e-13
9.007755477754 2.6769259862378076e-13
9.680894625777766 2.1895942118960188e-13
10.479589907411905 1.767147201444637e-13
11.181840729936939 1.4649344150777832e-13
11.760411963683248 1.1744057848695196e-13
12.19191672095796 9.933239551083724e-14
12.36891965249126 1.4214358766808694e-15
12.548492322523293 1.2266686686019268e-15
12.730672038661904 7.274751819559661e-16
12.730672038661904 6.448438250733874e-16
12.91549665014884 6.111978504526158e-16
13.389382961641559 6.757999912537106e-16
13.78098072214209 7.726805850957054e-16
14.286622765964934 8.775517311098529e-16
14.810817471723537 1.072865931282205e-15
15.354245560629904 1.2855557319139033e-15
16.03274276779191 1.5404101217768902e-15
16.74122246144656 1.9086542897113534e-15
17.481009554190134 2.333458062281014e-15
18.2534875059107 2.7773867777633834e-15
18.787345178748726 3.0915894612222338e-15
19.617549514314028 3.3955418765882105e-15
20.484440206159803 3.779675760267213e-15
21.389638407873726 4.179178385262452e-15
22.659095327472148 4.6832296487577305e-15
24.003893439847495 5.213038220856827e-15
24.35238331263036 2.6324712472067162e-15
26.937664362734356 3.0504480719925866e-15
28.95068486308684 3.5347901519520714e-15
31.11413605706862 4.207266283844463e-15
33.43925945641878 4.941037862233403e-15
35.93813663804626 6.12222224332014e-15
37.52622673620413 4.1512780027523036e-15
40.91603898405438 4.941037862233403e-15
44.61205913168767 5.574190646038167e-15
48.6419474950843 6.040750647100097e-15
50.06457300068296 3.779675760267213e-15
54.586996849318275 3.9346770384669025e-15
59.517939461639635 3.9346770384669025e-15
61.2586538671918 3.2183729073568586e-15
62.1480104437207 2.7773867777633834e-15
63.05027874896511 2.1245782310305717e-15
63.96564623612767 1.6693425163950831e-15
64.8943030798669 1.2941958414499916e-15
67.27535916748195 1.4214358766808694e-15
68.745724993429 1.5611856311111353e-15
72.82572553488714 1.3293408898565625e-15
74.41739980316893 1.147192670615668e-15
78.26790777016576 9.638290236239744e-16
85.33799009520152 8.206950579105494e-16
86.57693182714794 7.67522134822711e-16
90.40272751456337 7.274751819559661e-16
95.76805280924837 7.274751819559661e-16
102.92468862547574 7.778737048694303e-16
112.22206276760357 8.658736937146588e-16